 Eloss (eV)   Int (a.u.)
   0.000000 31083.516534
   0.001600 31077.506641
   0.003201 31059.481041
   0.004801 31029.461068
   0.006401 30987.482231
   0.008002 30933.594143
   0.009602 30867.860421
   0.011202 30790.358565
   0.012803 30701.179803
   0.014403 30600.428911
   0.016003 30488.224010
   0.017604 30364.696333
   0.019204 30229.989969
   0.020804 30084.261585
   0.022404 29927.680118
   0.024005 29760.426451
   0.025605 29582.693065
   0.027205 29394.683667
   0.028806 29196.612801
   0.030406 28988.705442
   0.032006 28771.196568
   0.033607 28544.330716
   0.035207 28308.361528
   0.036807 28063.551273
   0.038408 27810.170367
   0.040008 27548.496870
   0.041608 27278.815983
   0.043209 27001.419526
   0.044809 26716.605419
   0.046409 26424.677144
   0.048010 26125.943212
   0.049610 25820.716623
   0.051210 25509.314316
   0.052811 25192.056634
   0.054411 24869.266769
   0.056011 24541.270227
   0.057612 24208.394281
   0.059212 23870.967437
   0.060812 23529.318899
   0.062412 23183.778046
   0.064013 22834.673912
   0.065613 22482.334673
   0.067213 22127.087151
   0.068814 21769.256318
   0.070414 21409.164823
   0.072014 21047.132520
   0.073615 20683.476022
   0.075215 20318.508253
   0.076815 19952.538031
   0.078416 19585.869661
   0.080016 19218.802535
   0.081616 18851.630765
   0.083217 18484.642824
   0.084817 18118.121204
   0.086417 17752.342097
   0.088018 17387.575096
   0.089618 17024.082905
   0.091218 16662.121086
   0.092819 16301.937803
   0.094419 15943.773611
   0.096019 15587.861242
   0.097620 15234.425425
   0.099220 14883.682725
   0.100820 14535.841390
   0.102420 14191.101236
   0.104021 13849.653535
   0.105621 13511.680932
   0.107221 13177.357378
   0.108822 12846.848079
   0.110422 12520.309471
   0.112022 12197.889203
   0.113623 11879.726143
   0.115223 11565.950404
   0.116823 11256.683380
   0.118424 10952.037799
   0.120024 10652.117796
   0.121624 10357.018997
   0.123225 10066.828615
   0.124825  9781.625569
   0.126425  9501.480600
   0.128026  9226.456416
   0.129626  8956.607838
   0.131226  8691.981956
   0.132827  8432.618306
   0.134427  8178.549043
   0.136027  7929.799128
   0.137628  7686.386529
   0.139228  7448.322418
   0.140828  7215.611384
   0.142428  6988.251644
   0.144029  6766.235268
   0.145629  6549.548397
   0.147229  6338.171479
   0.148830  6132.079492
   0.150430  5931.242183
   0.152030  5735.624303
   0.153631  5545.185841
   0.155231  5359.882263
   0.156831  5179.664749
   0.158432  5004.480431
   0.160032  4834.272624
   0.161632  4668.981066
   0.163233  4508.542146
   0.164833  4352.889135
   0.166433  4201.952411
   0.168034  4055.659684
   0.169634  3913.936216
   0.171234  3776.705031
   0.172835  3643.887135
   0.174435  3515.401712
   0.176035  3391.166334
   0.177636  3271.097149
   0.179236  3155.109079
   0.180836  3043.115998
   0.182436  2935.030913
   0.184037  2830.766139
   0.185637  2730.233462
   0.187237  2633.344301
   0.188838  2540.009860
   0.190438  2450.141278
   0.192038  2363.649768
   0.193639  2280.446749
   0.195239  2200.443979
   0.196839  2123.553671
   0.198440  2049.688611
   0.200040  1978.762262
   0.201640  1910.688871
   0.203241  1845.383560
   0.204841  1782.762416
   0.206441  1722.742576
   0.208042  1665.242302
   0.209642  1610.181051
   0.211242  1557.479541
   0.212843  1507.059811
   0.214443  1458.845276
   0.216043  1412.760771
   0.217644  1368.732599
   0.219244  1326.688568
   0.220844  1286.558022
   0.222444  1248.271875
   0.224045  1211.762628
   0.225645  1176.964398
   0.227245  1143.812924
   0.228846  1112.245588
   0.230446  1082.201416
   0.232046  1053.621086
   0.233647  1026.446931
   0.235247  1000.622932
   0.236847   976.094718
   0.238448   952.809553
   0.240048   930.716331
   0.241648   909.765560
   0.243249   889.909345
   0.244849   871.101376
   0.246449   853.296902
   0.248050   836.452715
   0.249650   820.527124
   0.251250   805.479933
   0.252851   791.272413
   0.254451   777.867275
   0.256051   765.228646
   0.257652   753.322035
   0.259252   742.114304
   0.260852   731.573641
   0.262452   721.669526
   0.264053   712.372697
   0.265653   703.655126
   0.267253   695.489976
   0.268854   687.851578
   0.270454   680.715394
   0.272054   674.057982
   0.273655   667.856970
   0.275255   662.091018
   0.276855   656.739788
   0.278456   651.783911
   0.280056   647.204959
   0.281656   642.985408
   0.283257   639.108609
   0.284857   635.558762
   0.286457   632.320881
   0.288058   629.380764
   0.289658   626.724970
   0.291258   624.340784
   0.292859   622.216195
   0.294459   620.339865
   0.296059   618.701104
   0.297660   617.289845
   0.299260   616.096620
   0.300860   615.112530
   0.302460   614.329231
   0.304061   613.738902
   0.305661   613.334228
   0.307261   613.108376
   0.308862   613.054977
   0.310462   613.168103
   0.312062   613.442250
   0.313663   613.872316
   0.315263   614.453588
   0.316863   615.181721
   0.318464   616.052720
   0.320064   617.062928
   0.321664   618.209010
   0.323265   619.487935
   0.324865   620.896965
   0.326465   622.433639
   0.328066   624.095762
   0.329666   625.881392
   0.331266   627.788830
   0.332867   629.816603
   0.334467   631.963460
   0.336067   634.228357
   0.337668   636.610449
   0.339268   639.109082
   0.340868   641.723781
   0.342468   644.454244
   0.344069   647.300333
   0.345669   650.262065
   0.347269   653.339608
   0.348870   656.533273
   0.350470   659.843505
   0.352070   663.270879
   0.353671   666.816096
   0.355271   670.479971
   0.356871   674.263437
   0.358472   678.167531
   0.360072   682.193397
   0.361672   686.342275
   0.363273   690.615501
   0.364873   695.014503
   0.366473   699.540794
   0.368074   704.195972
   0.369674   708.981715
   0.371274   713.899778
   0.372875   718.951991
   0.374475   724.140254
   0.376075   729.466537
   0.377676   734.932875
   0.379276   740.541369
   0.380876   746.294179
   0.382476   752.193526
   0.384077   758.241688
   0.385677   764.441000
   0.387277   770.793849
   0.388878   777.302676
   0.390478   783.969969
   0.392078   790.798270
   0.393679   797.790164
   0.395279   804.948285
   0.396879   812.275309
   0.398480   819.773959
   0.400080   827.446996
   0.401680   835.297225
   0.403281   843.327489
   0.404881   851.540671
   0.406481   859.939691
   0.408082   868.527504
   0.409682   877.307102
   0.411282   886.281511
   0.412883   895.453791
   0.414483   904.827034
   0.416083   914.404361
   0.417684   924.188927
   0.419284   934.183914
   0.420884   944.392535
   0.422484   954.818027
   0.424085   965.463655
   0.425685   976.332712
   0.427285   987.428512
   0.428886   998.754394
   0.430486  1010.313720
   0.432086  1022.109873
   0.433687  1034.146258
   0.435287  1046.426297
   0.436887  1058.953434
   0.438488  1071.731127
   0.440088  1084.762853
   0.441688  1098.052103
   0.443289  1111.602384
   0.444889  1125.417213
   0.446489  1139.500123
   0.448090  1153.854654
   0.449690  1168.484359
   0.451290  1183.392797
   0.452891  1198.583537
   0.454491  1214.060151
   0.456091  1229.826218
   0.457692  1245.885319
   0.459292  1262.241038
   0.460892  1278.896961
   0.462492  1295.856671
   0.464093  1313.123751
   0.465693  1330.701779
   0.467293  1348.594331
   0.468894  1366.804974
   0.470494  1385.337269
   0.472094  1404.194768
   0.473695  1423.381011
   0.475295  1442.899527
   0.476895  1462.753830
   0.478496  1482.947421
   0.480096  1503.483780
   0.481696  1524.366373
   0.483297  1545.598643
   0.484897  1567.184011
   0.486497  1589.125876
   0.488098  1611.427609
   0.489698  1634.092557
   0.491298  1657.124036
   0.492899  1680.525333
   0.494499  1704.299701
   0.496099  1728.450359
   0.497700  1752.980491
   0.499300  1777.893244
   0.500900  1803.191722
   0.502501  1828.878992
   0.504101  1854.958073
   0.505701  1881.431942
   0.507301  1908.303529
   0.508902  1935.575713
   0.510502  1963.251323
   0.512102  1991.333137
   0.513703  2019.823875
   0.515303  2048.726205
   0.516903  2078.042733
   0.518504  2107.776006
   0.520104  2137.928509
   0.521704  2168.502665
   0.523305  2199.500828
   0.524905  2230.925287
   0.526505  2262.778261
   0.528106  2295.061898
   0.529706  2327.778272
   0.531306  2360.929385
   0.532907  2394.517161
   0.534507  2428.543447
   0.536107  2463.010009
   0.537708  2497.918534
   0.539308  2533.270626
   0.540908  2569.067804
   0.542509  2605.311501
   0.544109  2642.003066
   0.545709  2679.143756
   0.547309  2716.734743
   0.548910  2754.777103
   0.550510  2793.271825
   0.552110  2832.219803
   0.553711  2871.621836
   0.555311  2911.478632
   0.556911  2951.790801
   0.558512  2992.558857
   0.560112  3033.783217
   0.561712  3075.464203
   0.563313  3117.602037
   0.564913  3160.196845
   0.566513  3203.248655
   0.568114  3246.757397
   0.569714  3290.722902
   0.571314  3335.144907
   0.572915  3380.023048
   0.574515  3425.356870
   0.576115  3471.145817
   0.577716  3517.389244
   0.579316  3564.086409
   0.580916  3611.236481
   0.582517  3658.838536
   0.584117  3706.891563
   0.585717  3755.394467
   0.587317  3804.346064
   0.588918  3853.745093
   0.590518  3903.590211
   0.592118  3953.879999
   0.593719  4004.612969
   0.595319  4055.787558
   0.596919  4107.402143
   0.598520  4159.455036
   0.600120  4211.944493
   0.601720  4264.868719
   0.603321  4318.225870
   0.604921  4372.014061
   0.606521  4426.231371
   0.608122  4480.875848
   0.609722  4535.945516
   0.611322  4591.438384
   0.612923  4647.352449
   0.614523  4703.685707
   0.616123  4760.436158
   0.617724  4817.601817
   0.619324  4875.180723
   0.620924  4933.170945
   0.622525  4991.570594
   0.624125  5050.377832
   0.625725  5109.590884
   0.627325  5169.208047
   0.628926  5229.227703
   0.630526  5289.648331
   0.632126  5350.468515
   0.633727  5411.686965
   0.635327  5473.302523
   0.636927  5535.314179
   0.638528  5597.721087
   0.640128  5660.522578
   0.641728  5723.718176
   0.643329  5787.307612
   0.644929  5851.290843
   0.646529  5915.668067
   0.648130  5980.439740
   0.649730  6045.606594
   0.651330  6111.169655
   0.652931  6177.130264
   0.654531  6243.490090
   0.656131  6310.251157
   0.657732  6377.415859
   0.659332  6444.986980
   0.660932  6512.967720
   0.662533  6581.361708
   0.664133  6650.173032
   0.665733  6719.406256
   0.667333  6789.066442
   0.668934  6859.159175
   0.670534  6929.690585
   0.672134  7000.667367
   0.673735  7072.096811
   0.675335  7143.986818
   0.676935  7216.345930
   0.678536  7289.183350
   0.680136  7362.508966
   0.681736  7436.333377
   0.683337  7510.667917
   0.684937  7585.524676
   0.686537  7660.916526
   0.688138  7736.857145
   0.689738  7813.361041
   0.691338  7890.443573
   0.692939  7968.120977
   0.694539  8046.410385
   0.696139  8125.329851
   0.697740  8204.898371
   0.699340  8285.135905
   0.700940  8366.063397
   0.702541  8447.702795
   0.704141  8530.077071
   0.705741  8613.210239
   0.707341  8697.127373
   0.708942  8781.854625
   0.710542  8867.419235
   0.712142  8953.849553
   0.713743  9041.175048
   0.715343  9129.426321
   0.716943  9218.635115
   0.718544  9308.834327
   0.720144  9400.058010
   0.721744  9492.341387
   0.723345  9585.720848
   0.724945  9680.233957
   0.726545  9775.919453
   0.728146  9872.817246
   0.729746  9970.968417
   0.731346 10070.415210
   0.732947 10171.201029
   0.734547 10273.370420
   0.736147 10376.969071
   0.737748 10482.043785
   0.739348 10588.642474
   0.740948 10696.814132
   0.742549 10806.608815
   0.744149 10918.077621
   0.745749 11031.272654
   0.747349 11146.247001
   0.748950 11263.054695
   0.750550 11381.750680
   0.752150 11502.390774
   0.753751 11625.031622
   0.755351 11749.730658
   0.756951 11876.546049
   0.758552 12005.536651
   0.760152 12136.761951
   0.761752 12270.282009
   0.763353 12406.157402
   0.764953 12544.449154
   0.766553 12685.218677
   0.768154 12828.527693
   0.769754 12974.438170
   0.771354 13123.012237
   0.772955 13274.312114
   0.774555 13428.400025
   0.776155 13585.338114
   0.777756 13745.188361
   0.779356 13908.012487
   0.780956 14073.871868
   0.782557 14242.827431
   0.784157 14414.939565
   0.785757 14590.268015
   0.787357 14768.871785
   0.788958 14950.809028
   0.790558 15136.136945
   0.792158 15324.911674
   0.793759 15517.188182
   0.795359 15713.020151
   0.796959 15912.459872
   0.798560 16115.558124
   0.800160 16322.364064
   0.801760 16532.925113
   0.803361 16747.286835
   0.804961 16965.492828
   0.806561 17187.584601
   0.808162 17413.601463
   0.809762 17643.580407
   0.811362 17877.555993
   0.812963 18115.560233
   0.814563 18357.622483
   0.816163 18603.769325
   0.817764 18854.024461
   0.819364 19108.408605
   0.820964 19366.939372
   0.822565 19629.631180
   0.824165 19896.495144
   0.825765 20167.538983
   0.827365 20442.766917
   0.828966 20722.179582
   0.830566 21005.773938
   0.832166 21293.543188
   0.833767 21585.476691
   0.835367 21881.559895
   0.836967 22181.774258
   0.838568 22486.097186
   0.840168 22794.501971
   0.841768 23106.957733
   0.843369 23423.429372
   0.844969 23743.877519
   0.846569 24068.258504
   0.848170 24396.524316
   0.849770 24728.622579
   0.851370 25064.496535
   0.852971 25404.085025
   0.854571 25747.322484
   0.856171 26094.138941
   0.857772 26444.460029
   0.859372 26798.206991
   0.860972 27155.296707
   0.862573 27515.641722
   0.864173 27879.150277
   0.865773 28245.726354
   0.867373 28615.269726
   0.868974 28987.676010
   0.870574 29362.836736
   0.872174 29740.639416
   0.873775 30120.967619
   0.875375 30503.701062
   0.876975 30888.715696
   0.878576 31275.883809
   0.880176 31665.074130
   0.881776 32056.151940
   0.883377 32448.979191
   0.884977 32843.414632
   0.886577 33239.313938
   0.888178 33636.529845
   0.889778 34034.912293
   0.891378 34434.308573
   0.892979 34834.563480
   0.894579 35235.519465
   0.896179 35637.016804
   0.897780 36038.893754
   0.899380 36440.986730
   0.900980 36843.130473
   0.902581 37245.158225
   0.904181 37646.901913
   0.905781 38048.192322
   0.907381 38448.859287
   0.908982 38848.731867
   0.910582 39247.638543
   0.912182 39645.407395
   0.913783 40041.866296
   0.915383 40436.843096
   0.916983 40830.165813
   0.918584 41221.662816
   0.920184 41611.163015
   0.921784 41998.496046
   0.923385 42383.492449
   0.924985 42765.983854
   0.926585 43145.803159
   0.928186 43522.784704
   0.929786 43896.764443
   0.931386 44267.580118
   0.932987 44635.071418
   0.934587 44999.080143
   0.936187 45359.450362
   0.937788 45716.028560
   0.939388 46068.663792
   0.940988 46417.207819
   0.942589 46761.515243
   0.944189 47101.443643
   0.945789 47436.853693
   0.947389 47767.609281
   0.948990 48093.577625
   0.950590 48414.629371
   0.952190 48730.638694
   0.953791 49041.483391
   0.955391 49347.044960
   0.956991 49647.208683
   0.958592 49941.863692
   0.960192 50230.903031
   0.961792 50514.223717
   0.963393 50791.726779
   0.964993 51063.317309
   0.966593 51328.904488
   0.968194 51588.401618
   0.969794 51841.726138
   0.971394 52088.799639
   0.972995 52329.547869
   0.974595 52563.900731
   0.976195 52791.792278
   0.977796 53013.160697
   0.979396 53227.948290
   0.980996 53436.101447
   0.982597 53637.570614
   0.984197 53832.310255
   0.985797 54020.278811
   0.987397 54201.438649
   0.988998 54375.756011
   0.990598 54543.200955
   0.992198 54703.747293
   0.993799 54857.372526
   0.995399 55004.057771
   0.996999 55143.787693
   0.998600 55276.550422
   1.000200 55402.337480
   1.001800 55521.143692
   1.003401 55632.967108
   1.005001 55737.808914
   1.006601 55835.673341
   1.008202 55926.567582
   1.009802 56010.501698
   1.011402 56087.488525
   1.013003 56157.543587
   1.014603 56220.685001
   1.016203 56276.933385
   1.017804 56326.311770
   1.019404 56368.845505
   1.021004 56404.562171
   1.022605 56433.491488
   1.024205 56455.665233
   1.025805 56471.117147
   1.027405 56479.882860
   1.029006 56481.999799
   1.030606 56477.507116
   1.032206 56466.445605
   1.033807 56448.857629
   1.035407 56424.787045
   1.037007 56394.279140
   1.038608 56357.380554
   1.040208 56314.139223
   1.041808 56264.604316
   1.043409 56208.826174
   1.045009 56146.856258
   1.046609 56078.747093
   1.048210 56004.552221
   1.049810 55924.326155
   1.051410 55838.124334
   1.053011 55746.003087
   1.054611 55648.019590
   1.056211 55544.231836
   1.057812 55434.698604
   1.059412 55319.479427
   1.061012 55198.634572
   1.062613 55072.225010
   1.064213 54940.312402
   1.065813 54802.959078
   1.067413 54660.228018
   1.069014 54512.182845
   1.070614 54358.887808
   1.072214 54200.407773
   1.073815 54036.808217
   1.075415 53868.155217
   1.077015 53694.515451
   1.078616 53515.956185
   1.080216 53332.545281
   1.081816 53144.351183
   1.083417 52951.442924
   1.085017 52753.890122
   1.086617 52551.762980
   1.088218 52345.132281
   1.089818 52134.069397
   1.091418 51918.646278
   1.093019 51698.935459
   1.094619 51475.010056
   1.096219 51246.943760
   1.097820 51014.810844
   1.099420 50778.686150
   1.101020 50538.645091
   1.102621 50294.763642
   1.104221 50047.118337
   1.105821 49795.786257
   1.107421 49540.845024
   1.109022 49282.372789
   1.110622 49020.448222
   1.112222 48755.150493
   1.113823 48486.559264
   1.115423 48214.754666
   1.117023 47939.817283
   1.118624 47661.828132
   1.120224 47380.868639
   1.121824 47097.020616
   1.123425 46810.366238
   1.125025 46520.988010
   1.126625 46228.968743
   1.128226 45934.391521
   1.129826 45637.339670
   1.131426 45337.896724
   1.133027 45036.146389
   1.134627 44732.172507
   1.136227 44426.059017
   1.137828 44117.889918
   1.139428 43807.749227
   1.141028 43495.720937
   1.142629 43181.888977
   1.144229 42866.337166
   1.145829 42549.149172
   1.147429 42230.408464
   1.149030 41910.198272
   1.150630 41588.601536
   1.152230 41265.700864
   1.153831 40941.578486
   1.155431 40616.316209
   1.157031 40289.995368
   1.158632 39962.696784
   1.160232 39634.500721
   1.161832 39305.486837
   1.163433 38975.734144
   1.165033 38645.320965
   1.166633 38314.324890
   1.168234 37982.822739
   1.169834 37650.890519
   1.171434 37318.603390
   1.173035 36986.035624
   1.174635 36653.260570
   1.176235 36320.350625
   1.177836 35987.377196
   1.179436 35654.410676
   1.181036 35321.520408
   1.182637 34988.774667
   1.184237 34656.240630
   1.185837 34323.984354
   1.187437 33992.070759
   1.189038 33660.563607
   1.190638 33329.525488
   1.192238 32999.017805
   1.193839 32669.100763
   1.195439 32339.833360
   1.197039 32011.273382
   1.198640 31683.477395
   1.200240 31356.500744
   1.201840 31030.397555
   1.203441 30705.220734
   1.205041 30381.021974
   1.206641 30057.851761
   1.208242 29735.759379
   1.209842 29414.792928
   1.211442 29094.999329
   1.213043 28776.424343
   1.214643 28459.112588
   1.216243 28143.107554
   1.217844 27828.451626
   1.219444 27515.186103
   1.221044 27203.351225
   1.222645 26892.986192
   1.224245 26584.129196
   1.225845 26276.817445
   1.227445 25971.087190
   1.229046 25666.973758
   1.230646 25364.511578
   1.232246 25063.734216
   1.233847 24764.674406
   1.235447 24467.364080
   1.237047 24171.834403
   1.238648 23878.115805
   1.240248 23586.238015
   1.241848 23296.230097
   1.243449 23008.120476
   1.245049 22721.936983
   1.246649 22437.706875
   1.248250 22155.456881
   1.249850 21875.213223
   1.251450 21597.001657
   1.253051 21320.847498
   1.254651 21046.775654
   1.256251 20774.810654
   1.257852 20504.976679
   1.259452 20237.297587
   1.261052 19971.796943
   1.262653 19708.498040
   1.264253 19447.423928
   1.265853 19188.597436
   1.267453 18932.041191
   1.269054 18677.777640
   1.270654 18425.829070
   1.272254 18176.217624
   1.273855 17928.965315
   1.275455 17684.094043
   1.277055 17441.625606
