 Eloss (eV)   Int (a.u.)
   0.000000 59736.893321
   0.001600 59729.493251
   0.003201 59706.821282
   0.004801 59668.895661
   0.006401 59615.746651
   0.008002 59547.416490
   0.009602 59463.959333
   0.011202 59365.441182
   0.012803 59251.939801
   0.014403 59123.544611
   0.016003 58980.356578
   0.017604 58822.488074
   0.019204 58650.062735
   0.020804 58463.215298
   0.022404 58262.091425
   0.024005 58046.847515
   0.025605 57817.650499
   0.027205 57574.677627
   0.028806 57318.116235
   0.030406 57048.163509
   0.032006 56765.026227
   0.033607 56468.920499
   0.035207 56160.071487
   0.036807 55838.713125
   0.038408 55505.087819
   0.040008 55159.446141
   0.041608 54802.046520
   0.043209 54433.154916
   0.044809 54053.044488
   0.046409 53661.995263
   0.048010 53260.293784
   0.049610 52848.232770
   0.051210 52426.110750
   0.052811 51994.231711
   0.054411 51552.904730
   0.056011 51102.443608
   0.057612 50643.166496
   0.059212 50175.395527
   0.060812 49699.456437
   0.062412 49215.678189
   0.064013 48724.392598
   0.065613 48225.933957
   0.067213 47720.638655
   0.068814 47208.844807
   0.070414 46690.891882
   0.072014 46167.120329
   0.073615 45637.871212
   0.075215 45103.485847
   0.076815 44564.305440
   0.078416 44020.670734
   0.080016 43472.921659
   0.081616 42921.396985
   0.083217 42366.433985
   0.084817 41808.368103
   0.086417 41247.532631
   0.088018 40684.258388
   0.089618 40118.873410
   0.091218 39551.702651
   0.092819 38983.067688
   0.094419 38413.286437
   0.096019 37842.672876
   0.097620 37271.536781
   0.099220 36700.183469
   0.100820 36128.913550
   0.102420 35558.022694
   0.104021 34987.801404
   0.105621 34418.534800
   0.107221 33850.502414
   0.108822 33283.978000
   0.110422 32719.229346
   0.112022 32156.518108
   0.113623 31596.099645
   0.115223 31038.222873
   0.116823 30483.130127
   0.118424 29931.057031
   0.120024 29382.232387
   0.121624 28836.878067
   0.123225 28295.208922
   0.124825 27757.432701
   0.126425 27223.749977
   0.128026 26694.354087
   0.129626 26169.431086
   0.131226 25649.159704
   0.132827 25133.711319
   0.134427 24623.249941
   0.136027 24117.932200
   0.137628 23617.907350
   0.139228 23123.317279
   0.140828 22634.296531
   0.142428 22150.972337
   0.144029 21673.464648
   0.145629 21201.886190
   0.147229 20736.342514
   0.148830 20276.932063
   0.150430 19823.746240
   0.152030 19376.869492
   0.153631 18936.379393
   0.155231 18502.346735
   0.156831 18074.835634
   0.158432 17653.903629
   0.160032 17239.601797
   0.161632 16831.974871
   0.163233 16431.061359
   0.164833 16036.893677
   0.166433 15649.498274
   0.168034 15268.895774
   0.169634 14895.101112
   0.171234 14528.123682
   0.172835 14167.967481
   0.174435 13814.631257
   0.176035 13468.108667
   0.177636 13128.388427
   0.179236 12795.454474
   0.180836 12469.286117
   0.182436 12149.858204
   0.184037 11837.141281
   0.185637 11531.101753
   0.187237 11231.702046
   0.188838 10938.900772
   0.190438 10652.652890
   0.192038 10372.909871
   0.193639 10099.619855
   0.195239  9832.727819
   0.196839  9572.175732
   0.198440  9317.902718
   0.200040  9069.845211
   0.201640  8827.937114
   0.203241  8592.109951
   0.204841  8362.293021
   0.206441  8138.413549
   0.208042  7920.396833
   0.209642  7708.166389
   0.211242  7501.644096
   0.212843  7300.750337
   0.214443  7105.404134
   0.216043  6915.523282
   0.217644  6731.024486
   0.219244  6551.823482
   0.220844  6377.835168
   0.222444  6208.973723
   0.224045  6045.152725
   0.225645  5886.285268
   0.227245  5732.284070
   0.228846  5583.061585
   0.230446  5438.530103
   0.232046  5298.601855
   0.233647  5163.189104
   0.235247  5032.204246
   0.236847  4905.559892
   0.238448  4783.168957
   0.240048  4664.944746
   0.241648  4550.801026
   0.243249  4440.652104
   0.244849  4334.412899
   0.246449  4231.999011
   0.248050  4133.326782
   0.249650  4038.313356
   0.251250  3946.876743
   0.252851  3858.935865
   0.254451  3774.410613
   0.256051  3693.221887
   0.257652  3615.291650
   0.259252  3540.542960
   0.260852  3468.900011
   0.262452  3400.288170
   0.264053  3334.634005
   0.265653  3271.865317
   0.267253  3211.911164
   0.268854  3154.701887
   0.270454  3100.169129
   0.272054  3048.245852
   0.273655  2998.866357
   0.275255  2951.966293
   0.276855  2907.482671
   0.278456  2865.353871
   0.280056  2825.519651
   0.281656  2787.921150
   0.283257  2752.500890
   0.284857  2719.202779
   0.286457  2687.972110
   0.288058  2658.755557
   0.289658  2631.501169
   0.291258  2606.158371
   0.292859  2582.677947
   0.294459  2561.012040
   0.296059  2541.114138
   0.297660  2522.939062
   0.299260  2506.442955
   0.300860  2491.583269
   0.302460  2478.318751
   0.304061  2466.609423
   0.305661  2456.416573
   0.307261  2447.702732
   0.308862  2440.431657
   0.310462  2434.568316
   0.312062  2430.078865
   0.313663  2426.930629
   0.315263  2425.092084
   0.316863  2424.532834
   0.318464  2425.223589
   0.320064  2427.136146
   0.321664  2430.243369
   0.323265  2434.519160
   0.324865  2439.938443
   0.326465  2446.477140
   0.328066  2454.112148
   0.329666  2462.821317
   0.331266  2472.583425
   0.332867  2483.378160
   0.334467  2495.186094
   0.336067  2507.988658
   0.337668  2521.768128
   0.339268  2536.507592
   0.340868  2552.190937
   0.342468  2568.802819
   0.344069  2586.328649
   0.345669  2604.754565
   0.347269  2624.067411
   0.348870  2644.254722
   0.350470  2665.304693
   0.352070  2687.206169
   0.353671  2709.948615
   0.355271  2733.522102
   0.356871  2757.917286
   0.358472  2783.125386
   0.360072  2809.138169
   0.361672  2835.947925
   0.363273  2863.547455
   0.364873  2891.930051
   0.366473  2921.089473
   0.368074  2951.019940
   0.369674  2981.716105
   0.371274  3013.173046
   0.372875  3045.386242
   0.374475  3078.351561
   0.376075  3112.065245
   0.377676  3146.523893
   0.379276  3181.724446
   0.380876  3217.664173
   0.382476  3254.340658
   0.384077  3291.751782
   0.385677  3329.895715
   0.387277  3368.770899
   0.388878  3408.376036
   0.390478  3448.710076
   0.392078  3489.772204
   0.393679  3531.561829
   0.395279  3574.078572
   0.396879  3617.322255
   0.398480  3661.292889
   0.400080  3705.990665
   0.401680  3751.415943
   0.403281  3797.569242
   0.404881  3844.451228
   0.406481  3892.062709
   0.408082  3940.404624
   0.409682  3989.478029
   0.411282  4039.284098
   0.412883  4089.824105
   0.414483  4141.099424
   0.416083  4193.111512
   0.417684  4245.861911
   0.419284  4299.352234
   0.420884  4353.584157
   0.422484  4408.559419
   0.424085  4464.279806
   0.425685  4520.747152
   0.427285  4577.963326
   0.428886  4635.930233
   0.430486  4694.649799
   0.432086  4754.123973
   0.433687  4814.354718
   0.435287  4875.344003
   0.436887  4937.093801
   0.438488  4999.606083
   0.440088  5062.882813
   0.441688  5126.925939
   0.443289  5191.737395
   0.444889  5257.319090
   0.446489  5323.672909
   0.448090  5390.800701
   0.449690  5458.704283
   0.451290  5527.385429
   0.452891  5596.845872
   0.454491  5667.087293
   0.456091  5738.111322
   0.457692  5809.919533
   0.459292  5882.513441
   0.460892  5955.894495
   0.462492  6030.064080
   0.464093  6105.023507
   0.465693  6180.774016
   0.467293  6257.316769
   0.468894  6334.652846
   0.470494  6412.783247
   0.472094  6491.708883
   0.473695  6571.430576
   0.475295  6651.949056
   0.476895  6733.264959
   0.478496  6815.378823
   0.480096  6898.291085
   0.481696  6982.002079
   0.483297  7066.512037
   0.484897  7151.821079
   0.486497  7237.929220
   0.488098  7324.836358
   0.489698  7412.542281
   0.491298  7501.046659
   0.492899  7590.349044
   0.494499  7680.448869
   0.496099  7771.345443
   0.497700  7863.037954
   0.499300  7955.525463
   0.500900  8048.806906
   0.502501  8142.881088
   0.504101  8237.746688
   0.505701  8333.402250
   0.507301  8429.846189
   0.508902  8527.076786
   0.510502  8625.092186
   0.512102  8723.890401
   0.513703  8823.469305
   0.515303  8923.826637
   0.516903  9024.959997
   0.518504  9126.866847
   0.520104  9229.544511
   0.521704  9332.990174
   0.523305  9437.200882
   0.524905  9542.173542
   0.526505  9647.904922
   0.528106  9754.391649
   0.529706  9861.630215
   0.531306  9969.616970
   0.532907 10078.348129
   0.534507 10187.819769
   0.536107 10298.027829
   0.537708 10408.968114
   0.539308 10520.636297
   0.540908 10633.027913
   0.542509 10746.138369
   0.544109 10859.962942
   0.545709 10974.496779
   0.547309 11089.734901
   0.548910 11205.672205
   0.550510 11322.303467
   0.552110 11439.623341
   0.553711 11557.626366
   0.555311 11676.306966
   0.556911 11795.659454
   0.558512 11915.678035
   0.560112 12036.356811
   0.561712 12157.689780
   0.563313 12279.670846
   0.564913 12402.293819
   0.566513 12525.552421
   0.568114 12649.440289
   0.569714 12773.950981
   0.571314 12899.077983
   0.572915 13024.814710
   0.574515 13151.154515
   0.576115 13278.090691
   0.577716 13405.616484
   0.579316 13533.725091
   0.580916 13662.409673
   0.582517 13791.663359
   0.584117 13921.479253
   0.585717 14051.850442
   0.587317 14182.770005
   0.588918 14314.231019
   0.590518 14446.226569
   0.592118 14578.749755
   0.593719 14711.793702
   0.595319 14845.351571
   0.596919 14979.416564
   0.598520 15113.981938
   0.600120 15249.041014
   0.601720 15384.587186
   0.603321 15520.613934
   0.604921 15657.114834
   0.606521 15794.083569
   0.608122 15931.513944
   0.609722 16069.399891
   0.611322 16207.735490
   0.612923 16346.514975
   0.614523 16485.732752
   0.616123 16625.383407
   0.617724 16765.461725
   0.619324 16905.962699
   0.620924 17046.881550
   0.622525 17188.213735
   0.624125 17329.954966
   0.625725 17472.101226
   0.627325 17614.648778
   0.628926 17757.594188
   0.630526 17900.934338
   0.632126 18044.666440
   0.633727 18188.788055
   0.635327 18333.297107
   0.636927 18478.191903
   0.638528 18623.471147
   0.640128 18769.133959
   0.641728 18915.179890
   0.643329 19061.608941
   0.644929 19208.421580
   0.646529 19355.618759
   0.648130 19503.201932
   0.649730 19651.173073
   0.651330 19799.534695
   0.652931 19948.289862
   0.654531 20097.442213
   0.656131 20246.995978
   0.657732 20396.955993
   0.659332 20547.327720
   0.660932 20698.117262
   0.662533 20849.331384
   0.664133 21000.977524
   0.665733 21153.063814
   0.667333 21305.599098
   0.668934 21458.592942
   0.670534 21612.055653
   0.672134 21765.998298
   0.673735 21920.432710
   0.675335 22075.371513
   0.676935 22230.828126
   0.678536 22386.816785
   0.680136 22543.352549
   0.681736 22700.451317
   0.683337 22858.129835
   0.684937 23016.405711
   0.686537 23175.297424
   0.688138 23334.824329
   0.689738 23495.006673
   0.691338 23655.865594
   0.692939 23817.423133
   0.694539 23979.702239
   0.696139 24142.726769
   0.697740 24306.521498
   0.699340 24471.112113
   0.700940 24636.525222
   0.702541 24802.788347
   0.704141 24969.929928
   0.705741 25137.979312
   0.707341 25306.966758
   0.708942 25476.923424
   0.710542 25647.881362
   0.712142 25819.873509
   0.713743 25992.933677
   0.715343 26167.096540
   0.716943 26342.397618
   0.718544 26518.873265
   0.720144 26696.560651
   0.721744 26875.497739
   0.723345 27055.723269
   0.724945 27237.276733
   0.726545 27420.198349
   0.728146 27604.529035
   0.729746 27790.310380
   0.731346 27977.584617
   0.732947 28166.394585
   0.734547 28356.783696
   0.736147 28548.795900
   0.737748 28742.475645
   0.739348 28937.867836
   0.740948 29135.017791
   0.742549 29333.971200
   0.744149 29534.774074
   0.745749 29737.472696
   0.747349 29942.113572
   0.748950 30148.743379
   0.750550 30357.408904
   0.752150 30568.156992
   0.753751 30781.034488
   0.755351 30996.088170
   0.756951 31213.364690
   0.758552 31432.910509
   0.760152 31654.771831
   0.761752 31878.994532
   0.763353 32105.624093
   0.764953 32334.705524
   0.766553 32566.283296
   0.768154 32800.401263
   0.769754 33037.102585
   0.771354 33276.429654
   0.772955 33518.424012
   0.774555 33763.126270
   0.776155 34010.576033
   0.777756 34260.811809
   0.779356 34513.870936
   0.780956 34769.789489
   0.782557 35028.602203
   0.784157 35290.342383
   0.785757 35555.041822
   0.787357 35822.730715
   0.788958 36093.437573
   0.790558 36367.189136
   0.792158 36644.010292
   0.793759 36923.923985
   0.795359 37206.951137
   0.796959 37493.110562
   0.798560 37782.418878
   0.800160 38074.890433
   0.801760 38370.537217
   0.803361 38669.368783
   0.804961 38971.392172
   0.806561 39276.611830
   0.808162 39585.029540
   0.809762 39896.644340
   0.811362 40211.452458
   0.812963 40529.447240
   0.814563 40850.619085
   0.816163 41174.955375
   0.817764 41502.440424
   0.819364 41833.055407
   0.820964 42166.778315
   0.822565 42503.583895
   0.824165 42843.443604
   0.825765 43186.325565
   0.827365 43532.194523
   0.828966 43881.011804
   0.830566 44232.735289
   0.832166 44587.319376
   0.833767 44944.714957
   0.835367 45304.869398
   0.836967 45667.726520
   0.838568 46033.226588
   0.840168 46401.306303
   0.841768 46771.898795
   0.843369 47144.933634
   0.844969 47520.336827
   0.846569 47898.030837
   0.848170 48277.934596
   0.849770 48659.963529
   0.851370 49044.029581
   0.852971 49430.041250
   0.854571 49817.903625
   0.856171 50207.518428
   0.857772 50598.784064
   0.859372 50991.595674
   0.860972 51385.845196
   0.862573 51781.421426
   0.864173 52178.210092
   0.865773 52576.093924
   0.867373 52974.952738
   0.868974 53374.663521
   0.870574 53775.100516
   0.872174 54176.135325
   0.873775 54577.637001
   0.875375 54979.472157
   0.876975 55381.505076
   0.878576 55783.597820
   0.880176 56185.610349
   0.881776 56587.400646
   0.883377 56988.824840
   0.884977 57389.737335
   0.886577 57789.990945
   0.888178 58189.437029
   0.889778 58587.925631
   0.891378 58985.305625
   0.892979 59381.424854
   0.894579 59776.130286
   0.896179 60169.268158
   0.897780 60560.684131
   0.899380 60950.223441
   0.900980 61337.731060
   0.902581 61723.051847
   0.904181 62106.030706
   0.905781 62486.512750
   0.907381 62864.343451
   0.908982 63239.368807
   0.910582 63611.435495
   0.912182 63980.391030
   0.913783 64346.083926
   0.915383 64708.363848
   0.916983 65067.081770
   0.918584 65422.090128
   0.920184 65773.242968
   0.921784 66120.396101
   0.923385 66463.407248
   0.924985 66802.136181
   0.926585 67136.444868
   0.928186 67466.197612
   0.929786 67791.261180
   0.931386 68111.504937
   0.932987 68426.800975
   0.934587 68737.024231
   0.936187 69042.052606
   0.937788 69341.767080
   0.939388 69636.051819
   0.940988 69924.794277
   0.942589 70207.885295
   0.944189 70485.219192
   0.945789 70756.693855
   0.947389 71022.210813
   0.948990 71281.675319
   0.950590 71534.996415
   0.952190 71782.086993
   0.953791 72022.863855
   0.955391 72257.247760
   0.956991 72485.163469
   0.958592 72706.539779
   0.960192 72921.309557
   0.961792 73129.409760
   0.963393 73330.781454
   0.964993 73525.369827
   0.966593 73713.124187
   0.968194 73893.997963
   0.969794 74067.948698
   0.971394 74234.938028
   0.972995 74394.931665
   0.974595 74547.899368
   0.976195 74693.814907
   0.977796 74832.656026
   0.979396 74964.404393
   0.980996 75089.045553
   0.982597 75206.568868
   0.984197 75316.967455
   0.985797 75420.238121
   0.987397 75516.381287
   0.988998 75605.400913
   0.990598 75687.304416
   0.992198 75762.102584
   0.993799 75829.809488
   0.995399 75890.442385
   0.996999 75944.021624
   0.998600 75990.570545
   1.000200 76030.115375
   1.001800 76062.685126
   1.003401 76088.311480
   1.005001 76107.028686
   1.006601 76118.873445
   1.008202 76123.884798
   1.009802 76122.104008
   1.011402 76113.574451
   1.013003 76098.341496
   1.014603 76076.452387
   1.016203 76047.956135
   1.017804 76012.903393
   1.019404 75971.346349
   1.021004 75923.338606
   1.022605 75868.935074
   1.024205 75808.191855
   1.025805 75741.166136
   1.027405 75667.916080
   1.029006 75588.500724
   1.030606 75502.979870
   1.032206 75411.413991
   1.033807 75313.864133
   1.035407 75210.391820
   1.037007 75101.058963
   1.038608 74985.927777
   1.040208 74865.060693
   1.041808 74738.520283
   1.043409 74606.369185
   1.045009 74468.670029
   1.046609 74325.485377
   1.048210 74176.877652
   1.049810 74022.909092
   1.051410 73863.641686
   1.053011 73699.137137
   1.054611 73529.456809
   1.056211 73354.661697
   1.057812 73174.812388
   1.059412 72989.969034
   1.061012 72800.191331
   1.062613 72605.538494
   1.064213 72406.069247
   1.065813 72201.841815
   1.067413 71992.913913
   1.069014 71779.342750
   1.070614 71561.185034
   1.072214 71338.496974
   1.073815 71111.334300
   1.075415 70879.752276
   1.077015 70643.805719
   1.078616 70403.549026
   1.080216 70159.036201
   1.081816 69910.320887
   1.083417 69657.456397
   1.085017 69400.495757
   1.086617 69139.491741
   1.088218 68874.496919
   1.089818 68605.563699
   1.091418 68332.744374
   1.093019 68056.091174
   1.094619 67775.656317
   1.096219 67491.492059
   1.097820 67203.650750
   1.099420 66912.184890
   1.101020 66617.147182
   1.102621 66318.590588
   1.104221 66016.568388
   1.105821 65711.134234
   1.107421 65402.342208
   1.109022 65090.246875
   1.110622 64774.903341
   1.112222 64456.367304
   1.113823 64134.695109
   1.115423 63809.943798
   1.117023 63482.171162
   1.118624 63151.435786
   1.120224 62817.797097
   1.121824 62481.315407
   1.123425 62142.051954
   1.125025 61800.068942
   1.126625 61455.429579
   1.128226 61108.198102
   1.129826 60758.439819
   1.131426 60406.221127
   1.133027 60051.609539
   1.134627 59694.673704
   1.136227 59335.483425
   1.137828 58974.109671
   1.139428 58610.624585
   1.141028 58245.101496
   1.142629 57877.614912
   1.144229 57508.240528
   1.145829 57137.055214
   1.147429 56764.137005
   1.149030 56389.565096
   1.150630 56013.419814
   1.152230 55635.782607
   1.153831 55256.736012
   1.155431 54876.363630
   1.157031 54494.750097
   1.158632 54111.981041
   1.160232 53728.143050
   1.161832 53343.323627
   1.163433 52957.611141
   1.165033 52571.094783
   1.166633 52183.864513
   1.168234 51796.011000
   1.169834 51407.625573
   1.171434 51018.800150
   1.173035 50629.627183
   1.174635 50240.199590
   1.176235 49850.610686
   1.177836 49460.954115
   1.179436 49071.323778
   1.181036 48681.813758
   1.182637 48292.518250
   1.184237 47903.531480
   1.185837 47514.947630
   1.187437 47126.860761
   1.189038 46739.364732
   1.190638 46352.553122
   1.192238 45966.519152
   1.193839 45581.355601
   1.195439 45197.154733
   1.197039 44814.008208
   1.198640 44432.007012
   1.200240 44051.241376
   1.201840 43671.800694
   1.203441 43293.773453
   1.205041 42917.247153
   1.206641 42542.308233
   1.208242 42169.042003
   1.209842 41797.532566
   1.211442 41427.862755
   1.213043 41060.114061
   1.214643 40694.366571
   1.216243 40330.698905
   1.217844 39969.188152
   1.219444 39609.909816
   1.221044 39252.937757
   1.222645 38898.344141
   1.224245 38546.199388
   1.225845 38196.572124
   1.227445 37849.529140
   1.229046 37505.135346
   1.230646 37163.453737
   1.232246 36824.545353
   1.233847 36488.469252
   1.235447 36155.282477
   1.237047 35825.040034
   1.238648 35497.794863
   1.240248 35173.597827
   1.241848 34852.497690
   1.243449 34534.541105
   1.245049 34219.772606
   1.246649 33908.234600
   1.248250 33599.967362
   1.249850 33295.009039
   1.251450 32993.395647
   1.253051 32695.161082
   1.254651 32400.337123
   1.256251 32108.953447
   1.257852 31821.037642
   1.259452 31536.615224
   1.261052 31255.709653
   1.262653 30978.342360
   1.264253 30704.532768
   1.265853 30434.298317
   1.267453 30167.654497
   1.269054 29904.614873
   1.270654 29645.191122
   1.272254 29389.393066
   1.273855 29137.228708
   1.275455 28888.704268
   1.277055 28643.824228
