 Eloss (eV)   Int (a.u.)  Int Err (a.u.)
 -37.956603 -5885.808785             NaN
 -37.924878 -4009.779608             NaN
 -37.893154 -3335.635589             NaN
 -37.861429 -2127.507821             NaN
 -37.829704  -748.275654             NaN
 -37.797979  -893.321323             NaN
 -37.766254  -566.327312             NaN
 -37.734529 -1595.948878             NaN
 -37.702804   203.344289       14.259884
 -37.671079  -929.591494             NaN
 -37.639354 -1053.078821             NaN
 -37.607629 -1073.257477             NaN
 -37.575904  -321.220214             NaN
 -37.544180  -705.773210             NaN
 -37.512455 -1010.823513             NaN
 -37.480730 -1154.993080             NaN
 -37.449005  -688.583161             NaN
 -37.417280 -1436.183108             NaN
 -37.385555  -851.375505             NaN
 -37.353830 -1036.930254             NaN
 -37.322105  -272.601958             NaN
 -37.290380  -872.957908             NaN
 -37.258655  -471.603157             NaN
 -37.226930  -920.553989             NaN
 -37.195205  -862.196336             NaN
 -37.163481 -1705.929546             NaN
 -37.131756 -1779.767696             NaN
 -37.100031 -2542.353093             NaN
 -37.068306  -478.394085             NaN
 -37.036581  -518.331596             NaN
 -37.004856 -1038.780420             NaN
 -36.973131  -980.456262             NaN
 -36.941406  -196.147996             NaN
 -36.909681  -579.416076             NaN
 -36.877956 -1012.225810             NaN
 -36.846231  -903.609592             NaN
 -36.814507    51.056673        7.145395
 -36.782782  -580.436360             NaN
 -36.751057 -1101.425131             NaN
 -36.719332 -1378.616378             NaN
 -36.687607  -192.957098             NaN
 -36.655882  -935.793406             NaN
 -36.624157  -745.522527             NaN
 -36.592432 -1392.014518             NaN
 -36.560707  -118.195848             NaN
 -36.528982 -1009.353024             NaN
 -36.497257 -1135.459750             NaN
 -36.465533 -1413.425487             NaN
 -36.433808  -224.789871             NaN
 -36.402083  -625.820178             NaN
 -36.370358 -1346.667923             NaN
 -36.338633 -1544.638531             NaN
 -36.306908  -192.362146             NaN
 -36.275183  -819.990348             NaN
 -36.243458 -1210.602294             NaN
 -36.211733 -1217.445043             NaN
 -36.180008  -343.095830             NaN
 -36.148283  -729.841900             NaN
 -36.116559  -713.216579             NaN
 -36.084834  -687.660596             NaN
 -36.053109    -2.844852             NaN
 -36.021384 -1075.211526             NaN
 -35.989659 -1204.178739             NaN
 -35.957934 -1247.193080             NaN
 -35.926209  -508.926254             NaN
 -35.894484  -830.248793             NaN
 -35.862759 -1240.302065             NaN
 -35.831034 -1259.955513             NaN
 -35.799309  -957.829944             NaN
 -35.767584  -889.967861             NaN
 -35.735860  -897.473192             NaN
 -35.704135 -1031.762445             NaN
 -35.672410   -51.121697             NaN
 -35.640685  -824.125281             NaN
 -35.608960 -1185.844892             NaN
 -35.577235  -780.961362             NaN
 -35.545510   521.517378       22.836755
 -35.513785  -720.194275             NaN
 -35.482060 -1023.035246             NaN
 -35.450335 -1838.532220             NaN
 -35.418610 -1248.007893             NaN
 -35.386886  -404.816758             NaN
 -35.355161  -761.495124             NaN
 -35.323436 -1482.620896             NaN
 -35.291711   -87.113857             NaN
 -35.259986  -868.219037             NaN
 -35.228261  -613.819263             NaN
 -35.196536  -615.800037             NaN
 -35.164811   -53.758853             NaN
 -35.133086   212.060457       14.562296
 -35.101361  -500.762288             NaN
 -35.069636  -860.768887             NaN
 -35.037912  -718.766688             NaN
 -35.006187 -1479.272007             NaN
 -34.974462 -1032.269645             NaN
 -34.942737 -1549.765599             NaN
 -34.911012 -1229.972370             NaN
 -34.879287 -1062.970403             NaN
 -34.847562 -1426.226683             NaN
 -34.815837 -2501.106299             NaN
 -34.784112 -1083.070137             NaN
 -34.752387 -1357.169736             NaN
 -34.720662 -1138.003332             NaN
 -34.688938 -1169.958825             NaN
 -34.657213  -473.698313             NaN
 -34.625488 -1267.649801             NaN
 -34.593763  -993.609498             NaN
 -34.562038 -1178.537098             NaN
 -34.530313  -204.691824             NaN
 -34.498588  -300.498642             NaN
 -34.466863  -777.907671             NaN
 -34.435138 -1285.194194             NaN
 -34.403413  -469.534246             NaN
 -34.371688  -864.186324             NaN
 -34.339963 -1264.585083             NaN
 -34.308239 -1845.121204             NaN
 -34.276514 -1034.002132             NaN
 -34.244789 -1206.836789             NaN
 -34.213064 -1131.560424             NaN
 -34.181339 -1273.883603             NaN
 -34.149614  -657.972329             NaN
 -34.117889  -496.425443             NaN
 -34.086164  -338.221975             NaN
 -34.054439  -969.309409             NaN
 -34.022714  -537.612460             NaN
 -33.990989 -1602.446927             NaN
 -33.959265 -1052.789961             NaN
 -33.927540 -1336.832514             NaN
 -33.895815  -556.887027             NaN
 -33.864090 -1284.110814             NaN
 -33.832365 -1155.094374             NaN
 -33.800640 -1821.930416             NaN
 -33.768915  -666.377462             NaN
 -33.737190 -1409.698183             NaN
 -33.705465  -489.596371             NaN
 -33.673740 -1500.414390             NaN
 -33.642015  -721.064046             NaN
 -33.610291 -1224.265996             NaN
 -33.578566  -900.797639             NaN
 -33.546841 -1796.379288             NaN
 -33.515116  -753.055499             NaN
 -33.483391  -963.917791             NaN
 -33.451666  -873.843895             NaN
 -33.419941 -1588.871577             NaN
 -33.388216  -789.084201             NaN
 -33.356491  -494.313759             NaN
 -33.324766  -947.169798             NaN
 -33.293041 -1462.128695             NaN
 -33.261317  -410.381271             NaN
 -33.229592 -1121.752405             NaN
 -33.197867  -691.173467             NaN
 -33.166142 -1083.892529             NaN
 -33.134417   341.693538       18.484954
 -33.102692  -312.433610             NaN
 -33.070967  -519.374772             NaN
 -33.039242 -1062.194693             NaN
 -33.007517  -135.990946             NaN
 -32.975792  -894.074360             NaN
 -32.944067 -1336.525311             NaN
 -32.912342 -1842.017490             NaN
 -32.880618   264.420512       16.261012
 -32.848893  -501.923200             NaN
 -32.817168  -968.031436             NaN
 -32.785443 -1681.891454             NaN
 -32.753718  -432.463974             NaN
 -32.721993  -915.945398             NaN
 -32.690268  -566.293224             NaN
 -32.658543 -1024.603665             NaN
 -32.626818   -49.349293             NaN
 -32.595093  -881.104504             NaN
 -32.563368  -760.130165             NaN
 -32.531644 -1215.537964             NaN
 -32.499919  -231.422018             NaN
 -32.468194  -748.435658             NaN
 -32.436469  -836.556600             NaN
 -32.404744 -1136.075004             NaN
 -32.373019  -312.237595             NaN
 -32.341294 -1282.540845             NaN
 -32.309569 -1492.185068             NaN
 -32.277844 -1393.373411             NaN
 -32.246119  -279.231519             NaN
 -32.214394  -417.960408             NaN
 -32.182670  -501.139383             NaN
 -32.150945 -1612.284256             NaN
 -32.119220  -649.938071             NaN
 -32.087495  -786.455675             NaN
 -32.055770 -1575.225422             NaN
 -32.024045 -1356.326440             NaN
 -31.992320  -385.187986             NaN
 -31.960595 -1086.391455             NaN
 -31.928870 -1195.546192             NaN
 -31.897145  -988.201380             NaN
 -31.865420  -439.382961             NaN
 -31.833696 -1156.443467             NaN
 -31.801971  -966.477280             NaN
 -31.770246 -1369.788075             NaN
 -31.738521 -1015.235023             NaN
 -31.706796  -504.679078             NaN
 -31.675071 -1091.824413             NaN
 -31.643346 -1085.787816             NaN
 -31.611621    33.457708        5.784264
 -31.579896  -580.579208             NaN
 -31.548171  -739.589398             NaN
 -31.516446 -1053.794863             NaN
 -31.484721   186.082471       13.641205
 -31.452997  -725.911579             NaN
 -31.421272  -663.728578             NaN
 -31.389547 -1150.393535             NaN
 -31.357822   -72.394228             NaN
 -31.326097  -393.920823             NaN
 -31.294372  -692.351960             NaN
 -31.262647 -1066.341896             NaN
 -31.230922   -12.725863             NaN
 -31.199197  -531.404302             NaN
 -31.167472  -423.406117             NaN
 -31.135747 -1007.704212             NaN
 -31.104023  -321.475125             NaN
 -31.072298  -600.050425             NaN
 -31.040573  -813.038427             NaN
 -31.008848 -1417.072611             NaN
 -30.977123  -852.859439             NaN
 -30.945398 -1408.981826             NaN
 -30.913673 -1394.951724             NaN
 -30.881948 -1617.678993             NaN
 -30.850223  -791.717887             NaN
 -30.818498  -783.535802             NaN
 -30.786773  -688.627137             NaN
 -30.755049  -862.649177             NaN
 -30.723324    -7.012910             NaN
 -30.691599  -134.515299             NaN
 -30.659874  -105.165058             NaN
 -30.628149  -715.776908             NaN
 -30.596424   242.457930       15.571061
 -30.564699  -449.583483             NaN
 -30.532974  -477.147934             NaN
 -30.501249  -992.929324             NaN
 -30.469524  -602.358919             NaN
 -30.437799  -898.880087             NaN
 -30.406075 -1048.281759             NaN
 -30.374350 -1684.085629             NaN
 -30.342625 -1362.589103             NaN
 -30.310900 -1357.672077             NaN
 -30.279175  -949.431551             NaN
 -30.247450 -1159.542823             NaN
 -30.215725   -85.447069             NaN
 -30.184000  -567.714238             NaN
 -30.152275  -428.955111             NaN
 -30.120550  -810.114971             NaN
 -30.088825  -100.140796             NaN
 -30.057100  -767.169395             NaN
 -30.025376  -555.609678             NaN
 -29.993651  -760.491773             NaN
 -29.961926  -129.708308             NaN
 -29.930201  -531.920970             NaN
 -29.898476  -266.979677             NaN
 -29.866751  -827.326206             NaN
 -29.835026   804.478491       28.363330
 -29.803301  -230.233547             NaN
 -29.771576  -248.215695             NaN
 -29.739851  -793.580208             NaN
 -29.708126   422.234549       20.548347
 -29.676402 -1067.313120             NaN
 -29.644677  -521.561972             NaN
 -29.612952  -841.578755             NaN
 -29.581227    25.232510        5.023197
 -29.549502  -463.999684             NaN
 -29.517777  -923.175433             NaN
 -29.486052 -1060.090991             NaN
 -29.454327   -28.309265             NaN
 -29.422602  -722.118102             NaN
 -29.390877  -792.161364             NaN
 -29.359152  -994.821134             NaN
 -29.327428  -481.546557             NaN
 -29.295703  -775.706651             NaN
 -29.263978 -1093.378236             NaN
 -29.232253  -936.562850             NaN
 -29.200528  -482.758269             NaN
 -29.168803  -879.950603             NaN
 -29.137078  -423.523399             NaN
 -29.105353 -1048.692910             NaN
 -29.073628  -227.585999             NaN
 -29.041903   272.878280       16.519028
 -29.010178   322.829919       17.967468
 -28.978454 -1116.648638             NaN
 -28.946729  -169.151194             NaN
 -28.915004  -580.654588             NaN
 -28.883279 -1009.995702             NaN
 -28.851554 -1603.104492             NaN
 -28.819829  -619.290380             NaN
 -28.788104  -520.717728             NaN
 -28.756379  -397.968195             NaN
 -28.724654  -909.578004             NaN
 -28.692929   108.896471       10.435347
 -28.661204   -73.692128             NaN
 -28.629479  -220.406486             NaN
 -28.597755  -658.271741             NaN
 -28.566030   528.736217       22.994265
 -28.534305  -158.790733             NaN
 -28.502580  -397.253429             NaN
 -28.470855  -624.897539             NaN
 -28.439130   -71.103378             NaN
 -28.407405  -298.595666             NaN
 -28.375680  -562.816902             NaN
 -28.343955 -1632.259341             NaN
 -28.312230   -87.197206             NaN
 -28.280505 -1061.076803             NaN
 -28.248781  -977.766626             NaN
 -28.217056  -655.747774             NaN
 -28.185331   276.088293       16.615905
 -28.153606  -173.973613             NaN
 -28.121881  -485.608910             NaN
 -28.090156  -873.644414             NaN
 -28.058431  -145.128584             NaN
 -28.026706  -593.111943             NaN
 -27.994981  -607.067556             NaN
 -27.963256 -1339.645844             NaN
 -27.931531  -248.719832             NaN
 -27.899807  -700.301827             NaN
 -27.868082  -669.706408             NaN
 -27.836357 -1111.628611             NaN
 -27.804632   -76.046787             NaN
 -27.772907  -459.466206             NaN
 -27.741182 -1075.169885             NaN
 -27.709457 -1586.970281             NaN
 -27.677732  -289.312832             NaN
 -27.646007  -777.146227             NaN
 -27.614282 -1163.283508             NaN
 -27.582557 -1130.250876             NaN
 -27.550833   158.248809       12.579698
 -27.519108  -188.175928             NaN
 -27.487383  -611.973422             NaN
 -27.455658 -1159.057665             NaN
 -27.423933  -631.435193             NaN
 -27.392208  -746.709834             NaN
 -27.360483  -739.730420             NaN
 -27.328758 -1052.790465             NaN
 -27.297033  -470.379027             NaN
 -27.265308  -637.801935             NaN
 -27.233583   371.539454       19.275359
 -27.201858  -275.045385             NaN
 -27.170134   477.781231       21.858207
 -27.138409  -671.749462             NaN
 -27.106684  -130.461861             NaN
 -27.074959 -1388.130596             NaN
 -27.043234  -395.806779             NaN
 -27.011509 -1042.872823             NaN
 -26.979784 -1070.213941             NaN
 -26.948059 -1348.728124             NaN
 -26.916334  -578.408319             NaN
 -26.884609 -1295.482608             NaN
 -26.852884  -614.711040             NaN
 -26.821160  -806.053777             NaN
 -26.789435   -12.893945             NaN
 -26.757710  -517.295034             NaN
 -26.725985  -645.128889             NaN
 -26.694260  -765.215361             NaN
 -26.662535   -22.085090             NaN
 -26.630810  -709.218452             NaN
 -26.599085  -112.366155             NaN
 -26.567360  -838.544609             NaN
 -26.535635   312.494950       17.677527
 -26.503910    80.046415        8.946866
 -26.472186  -243.338812             NaN
 -26.440461  -397.629253             NaN
 -26.408736   404.552613       20.113493
 -26.377011  -403.116623             NaN
 -26.345286  -568.413026             NaN
 -26.313561  -134.859554             NaN
 -26.281836   387.534705       19.685901
 -26.250111  -474.968675             NaN
 -26.218386  -174.744632             NaN
 -26.186661  -472.978457             NaN
 -26.154936   987.624811       31.426499
 -26.123211   411.243661       20.279143
 -26.091487   589.208073       24.273609
 -26.059762  -143.536148             NaN
 -26.028037   660.227437       25.694891
 -25.996312   437.041187       20.905530
 -25.964587    10.541198        3.246721
 -25.932862  -385.138624             NaN
 -25.901137   680.398377       26.084447
 -25.869412   548.835910       23.427247
 -25.837687   256.094090       16.002940
 -25.805962   308.261374       17.557374
 -25.774237  1001.314090       31.643547
 -25.742513   771.761683       27.780599
 -25.710788   388.486887       19.710071
 -25.679063    86.511026        9.301130
 -25.647338   636.220157       25.223405
 -25.615613    79.160785        8.897235
 -25.583888   476.442779       21.827569
 -25.552163   105.310002       10.262066
 -25.520438  1039.795292       32.245857
 -25.488713    29.184153        5.402236
 -25.456988  -132.088578             NaN
 -25.425263  -564.284414             NaN
 -25.393539   289.292847       17.008611
 -25.361814  -164.684644             NaN
 -25.330089  -291.470731             NaN
 -25.298364  -827.922675             NaN
 -25.266639   433.276741       20.815301
 -25.234914  -397.318643             NaN
 -25.203189   129.283276       11.370280
 -25.171464   -94.958238             NaN
 -25.139739   569.262869       23.859230
 -25.108014    -7.452497             NaN
 -25.076289   294.290612       17.154901
 -25.044565  -574.244388             NaN
 -25.012840   229.410911       15.146317
 -24.981115  -199.808749             NaN
 -24.949390  -237.650714             NaN
 -24.917665  -731.113076             NaN
 -24.885940   935.744408       30.589940
 -24.854215   471.034361       21.703326
 -24.822490  -159.954415             NaN
 -24.790765  -577.911182             NaN
 -24.759040   128.683954       11.343895
 -24.727315   -98.676973             NaN
 -24.695590   308.496731       17.564075
 -24.663866  -105.230629             NaN
 -24.632141   685.899740       26.189688
 -24.600416   149.709620       12.235588
 -24.568691   445.379368       21.104013
 -24.536966  -549.177334             NaN
 -24.505241   332.677127       18.239439
 -24.473516   355.950788       18.866658
 -24.441791  -483.981177             NaN
 -24.410066  -920.109260             NaN
 -24.378341   138.287356       11.759564
 -24.346616  -568.484945             NaN
 -24.314892  -408.979472             NaN
 -24.283167  -331.763460             NaN
 -24.251442   659.925772       25.689020
 -24.219717  -166.114787             NaN
 -24.187992   -35.568176             NaN
 -24.156267  -802.455934             NaN
 -24.124542   752.840328       27.437936
 -24.092817    32.130694        5.668394
 -24.061092  -216.036713             NaN
 -24.029367  -636.470363             NaN
 -23.997642   317.703784       17.824247
 -23.965918  -466.216968             NaN
 -23.934193  -748.901036             NaN
 -23.902468 -1073.607168             NaN
 -23.870743   -15.978476             NaN
 -23.839018  -116.210955             NaN
 -23.807293    -3.864494             NaN
 -23.775568   -70.409417             NaN
 -23.743843   969.703148       31.140057
 -23.712118   401.215105       20.030355
 -23.680393   419.314963       20.477182
 -23.648668    73.612471        8.579771
 -23.616944   238.359102       15.438883
 -23.585219  -934.329203             NaN
 -23.553494  -283.087957             NaN
 -23.521769  -407.124228             NaN
 -23.490044   150.753114       12.278156
 -23.458319   153.890639       12.405267
 -23.426594  -699.985319             NaN
 -23.394869 -1277.922145             NaN
 -23.363144  -304.142330             NaN
 -23.331419  -481.133813             NaN
 -23.299694   257.492721       16.046580
 -23.267969  -111.340514             NaN
 -23.236245  1021.540749       31.961551
 -23.204520   268.948321       16.399644
 -23.172795   147.238518       12.134188
 -23.141070  -420.470128             NaN
 -23.109345   997.514279       31.583449
 -23.077620   230.187165       15.171920
 -23.045895  -220.973681             NaN
 -23.014170  -239.736564             NaN
 -22.982445   377.132041       19.419888
 -22.950720   302.553494       17.394065
 -22.918995    35.532427        5.960908
 -22.887271  -478.523226             NaN
 -22.855546   359.067661       18.949081
 -22.823821   119.719708       10.941650
 -22.792096  -424.534143             NaN
 -22.760371   153.123418       12.374305
 -22.728646   703.694370       26.527238
 -22.696921   333.839026       18.271262
 -22.665196   619.190287       24.883534
 -22.633471  -279.247383             NaN
 -22.601746   308.168590       17.554731
 -22.570021  -335.186046             NaN
